	 P (Pa) 	 T (deg C) 	 sf (kJ/kg.K) 	 sg (kJ/kg.K) 	 hf (kJ/kg.K) 	 hg (kJ/kg.K)
	    389.56 	   -103.30 	      0.41 	      1.96 	     71.45 	    334.94 
	    393.18 	   -103.22 	      0.41 	      1.96 	     71.55 	    334.99 
	    396.84 	   -103.13 	      0.41 	      1.96 	     71.65 	    335.04 
	    400.53 	   -103.05 	      0.41 	      1.96 	     71.75 	    335.08 
	    404.25 	   -102.97 	      0.41 	      1.96 	     71.85 	    335.13 
	    408.01 	   -102.89 	      0.42 	      1.96 	     71.94 	    335.18 
	    411.80 	   -102.80 	      0.42 	      1.96 	     72.04 	    335.23 
	    415.63 	   -102.72 	      0.42 	      1.96 	     72.14 	    335.28 
	    419.49 	   -102.64 	      0.42 	      1.96 	     72.24 	    335.32 
	    423.39 	   -102.55 	      0.42 	      1.96 	     72.34 	    335.37 
	    427.32 	   -102.47 	      0.42 	      1.96 	     72.44 	    335.42 
	    431.30 	   -102.39 	      0.42 	      1.96 	     72.54 	    335.47 
	    435.30 	   -102.30 	      0.42 	      1.96 	     72.63 	    335.52 
	    439.35 	   -102.22 	      0.42 	      1.96 	     72.73 	    335.57 
	    443.43 	   -102.14 	      0.42 	      1.96 	     72.83 	    335.61 
	    447.55 	   -102.05 	      0.42 	      1.96 	     72.93 	    335.66 
	    451.71 	   -101.97 	      0.42 	      1.96 	     73.03 	    335.71 
	    455.91 	   -101.88 	      0.42 	      1.96 	     73.13 	    335.76 
	    460.15 	   -101.80 	      0.42 	      1.96 	     73.23 	    335.81 
	    464.43 	   -101.72 	      0.42 	      1.95 	     73.33 	    335.86 
	    468.74 	   -101.63 	      0.42 	      1.95 	     73.43 	    335.91 
	    473.10 	   -101.55 	      0.42 	      1.95 	     73.53 	    335.95 
	    477.50 	   -101.46 	      0.43 	      1.95 	     73.63 	    336.00 
	    481.94 	   -101.38 	      0.43 	      1.95 	     73.73 	    336.05 
	    486.41 	   -101.29 	      0.43 	      1.95 	     73.83 	    336.10 
	    490.94 	   -101.21 	      0.43 	      1.95 	     73.93 	    336.15 
	    495.50 	   -101.12 	      0.43 	      1.95 	     74.03 	    336.20 
	    500.10 	   -101.04 	      0.43 	      1.95 	     74.13 	    336.25 
	    504.75 	   -100.95 	      0.43 	      1.95 	     74.23 	    336.30 
	    509.44 	   -100.87 	      0.43 	      1.95 	     74.33 	    336.35 
	    514.18 	   -100.78 	      0.43 	      1.95 	     74.44 	    336.40 
	    518.96 	   -100.70 	      0.43 	      1.95 	     74.54 	    336.45 
	    523.78 	   -100.61 	      0.43 	      1.95 	     74.64 	    336.50 
	    528.65 	   -100.53 	      0.43 	      1.95 	     74.74 	    336.55 
	    533.56 	   -100.44 	      0.43 	      1.95 	     74.84 	    336.60 
	    538.52 	   -100.35 	      0.43 	      1.95 	     74.94 	    336.65 
	    543.53 	   -100.27 	      0.43 	      1.95 	     75.04 	    336.70 
	    548.58 	   -100.18 	      0.43 	      1.95 	     75.15 	    336.75 
	    553.68 	   -100.10 	      0.43 	      1.95 	     75.25 	    336.80 
	    558.82 	   -100.01 	      0.44 	      1.95 	     75.35 	    336.85 
	    564.02 	    -99.92 	      0.44 	      1.95 	     75.45 	    336.90 
	    569.26 	    -99.84 	      0.44 	      1.94 	     75.56 	    336.95 
	    574.55 	    -99.75 	      0.44 	      1.94 	     75.66 	    337.00 
	    579.89 	    -99.66 	      0.44 	      1.94 	     75.76 	    337.05 
	    585.28 	    -99.58 	      0.44 	      1.94 	     75.86 	    337.10 
	    590.72 	    -99.49 	      0.44 	      1.94 	     75.97 	    337.15 
	    596.21 	    -99.40 	      0.44 	      1.94 	     76.07 	    337.20 
	    601.75 	    -99.32 	      0.44 	      1.94 	     76.17 	    337.25 
	    607.34 	    -99.23 	      0.44 	      1.94 	     76.28 	    337.30 
	    612.99 	    -99.14 	      0.44 	      1.94 	     76.38 	    337.35 
	    618.69 	    -99.05 	      0.44 	      1.94 	     76.48 	    337.40 
	    624.44 	    -98.97 	      0.44 	      1.94 	     76.59 	    337.45 
	    630.24 	    -98.88 	      0.44 	      1.94 	     76.69 	    337.51 
	    636.10 	    -98.79 	      0.44 	      1.94 	     76.79 	    337.56 
	    642.01 	    -98.70 	      0.44 	      1.94 	     76.90 	    337.61 
	    647.98 	    -98.62 	      0.44 	      1.94 	     77.00 	    337.66 
	    654.00 	    -98.53 	      0.45 	      1.94 	     77.11 	    337.71 
	    660.08 	    -98.44 	      0.45 	      1.94 	     77.21 	    337.76 
	    666.21 	    -98.35 	      0.45 	      1.94 	     77.32 	    337.81 
	    672.40 	    -98.26 	      0.45 	      1.94 	     77.42 	    337.87 
	    678.65 	    -98.17 	      0.45 	      1.94 	     77.53 	    337.92 
	    684.96 	    -98.09 	      0.45 	      1.94 	     77.63 	    337.97 
	    691.33 	    -98.00 	      0.45 	      1.94 	     77.74 	    338.02 
	    697.75 	    -97.91 	      0.45 	      1.93 	     77.84 	    338.07 
	    704.24 	    -97.82 	      0.45 	      1.93 	     77.95 	    338.13 
	    710.78 	    -97.73 	      0.45 	      1.93 	     78.05 	    338.18 
	    717.39 	    -97.64 	      0.45 	      1.93 	     78.16 	    338.23 
	    724.06 	    -97.55 	      0.45 	      1.93 	     78.26 	    338.28 
	    730.79 	    -97.46 	      0.45 	      1.93 	     78.37 	    338.33 
	    737.58 	    -97.37 	      0.45 	      1.93 	     78.47 	    338.39 
	    744.43 	    -97.28 	      0.45 	      1.93 	     78.58 	    338.44 
	    751.35 	    -97.19 	      0.45 	      1.93 	     78.69 	    338.49 
	    758.34 	    -97.10 	      0.46 	      1.93 	     78.79 	    338.54 
	    765.39 	    -97.01 	      0.46 	      1.93 	     78.90 	    338.60 
	    772.50 	    -96.92 	      0.46 	      1.93 	     79.01 	    338.65 
	    779.68 	    -96.83 	      0.46 	      1.93 	     79.11 	    338.70 
	    786.93 	    -96.74 	      0.46 	      1.93 	     79.22 	    338.76 
	    794.24 	    -96.65 	      0.46 	      1.93 	     79.33 	    338.81 
	    801.62 	    -96.56 	      0.46 	      1.93 	     79.43 	    338.86 
	    809.07 	    -96.47 	      0.46 	      1.93 	     79.54 	    338.92 
	    816.59 	    -96.38 	      0.46 	      1.93 	     79.65 	    338.97 
	    824.18 	    -96.29 	      0.46 	      1.93 	     79.76 	    339.02 
	    831.84 	    -96.20 	      0.46 	      1.93 	     79.86 	    339.08 
	    839.57 	    -96.11 	      0.46 	      1.93 	     79.97 	    339.13 
	    847.38 	    -96.02 	      0.46 	      1.93 	     80.08 	    339.18 
	    855.25 	    -95.93 	      0.46 	      1.92 	     80.19 	    339.24 
	    863.20 	    -95.84 	      0.46 	      1.92 	     80.30 	    339.29 
	    871.22 	    -95.74 	      0.46 	      1.92 	     80.40 	    339.34 
	    879.32 	    -95.65 	      0.46 	      1.92 	     80.51 	    339.40 
	    887.49 	    -95.56 	      0.47 	      1.92 	     80.62 	    339.45 
	    895.74 	    -95.47 	      0.47 	      1.92 	     80.73 	    339.51 
	    904.07 	    -95.38 	      0.47 	      1.92 	     80.84 	    339.56 
	    912.47 	    -95.29 	      0.47 	      1.92 	     80.95 	    339.62 
	    920.95 	    -95.19 	      0.47 	      1.92 	     81.06 	    339.67 
	    929.51 	    -95.10 	      0.47 	      1.92 	     81.17 	    339.72 
	    938.15 	    -95.01 	      0.47 	      1.92 	     81.28 	    339.78 
	    946.87 	    -94.92 	      0.47 	      1.92 	     81.39 	    339.83 
	    955.67 	    -94.82 	      0.47 	      1.92 	     81.50 	    339.89 
	    964.55 	    -94.73 	      0.47 	      1.92 	     81.61 	    339.94 
	    973.52 	    -94.64 	      0.47 	      1.92 	     81.72 	    340.00 
	    982.56 	    -94.55 	      0.47 	      1.92 	     81.83 	    340.05 
	    991.70 	    -94.45 	      0.47 	      1.92 	     81.94 	    340.11 
	   1000.91 	    -94.36 	      0.47 	      1.92 	     82.05 	    340.16 
	   1010.22 	    -94.27 	      0.47 	      1.92 	     82.16 	    340.22 
	   1019.61 	    -94.17 	      0.47 	      1.92 	     82.27 	    340.27 
	   1029.08 	    -94.08 	      0.48 	      1.92 	     82.38 	    340.33 
	   1038.65 	    -93.99 	      0.48 	      1.92 	     82.49 	    340.38 
	   1048.30 	    -93.89 	      0.48 	      1.91 	     82.60 	    340.44 
	   1058.04 	    -93.80 	      0.48 	      1.91 	     82.71 	    340.50 
	   1067.88 	    -93.70 	      0.48 	      1.91 	     82.83 	    340.55 
	   1077.80 	    -93.61 	      0.48 	      1.91 	     82.94 	    340.61 
	   1087.82 	    -93.52 	      0.48 	      1.91 	     83.05 	    340.66 
	   1097.93 	    -93.42 	      0.48 	      1.91 	     83.16 	    340.72 
	   1108.14 	    -93.33 	      0.48 	      1.91 	     83.27 	    340.77 
	   1118.44 	    -93.23 	      0.48 	      1.91 	     83.38 	    340.83 
	   1128.83 	    -93.14 	      0.48 	      1.91 	     83.50 	    340.89 
	   1139.32 	    -93.04 	      0.48 	      1.91 	     83.61 	    340.94 
	   1149.91 	    -92.95 	      0.48 	      1.91 	     83.72 	    341.00 
	   1160.60 	    -92.85 	      0.48 	      1.91 	     83.84 	    341.06 
	   1171.39 	    -92.76 	      0.48 	      1.91 	     83.95 	    341.11 
	   1182.27 	    -92.66 	      0.48 	      1.91 	     84.06 	    341.17 
	   1193.26 	    -92.57 	      0.49 	      1.91 	     84.17 	    341.23 
	   1204.35 	    -92.47 	      0.49 	      1.91 	     84.29 	    341.28 
	   1215.55 	    -92.38 	      0.49 	      1.91 	     84.40 	    341.34 
	   1226.84 	    -92.28 	      0.49 	      1.91 	     84.52 	    341.40 
	   1238.25 	    -92.18 	      0.49 	      1.91 	     84.63 	    341.45 
	   1249.75 	    -92.09 	      0.49 	      1.91 	     84.74 	    341.51 
	   1261.37 	    -91.99 	      0.49 	      1.91 	     84.86 	    341.57 
	   1273.09 	    -91.90 	      0.49 	      1.91 	     84.97 	    341.63 
	   1284.93 	    -91.80 	      0.49 	      1.91 	     85.09 	    341.68 
	   1296.87 	    -91.70 	      0.49 	      1.90 	     85.20 	    341.74 
	   1308.92 	    -91.61 	      0.49 	      1.90 	     85.32 	    341.80 
	   1321.09 	    -91.51 	      0.49 	      1.90 	     85.43 	    341.86 
	   1333.37 	    -91.41 	      0.49 	      1.90 	     85.55 	    341.91 
	   1345.76 	    -91.32 	      0.49 	      1.90 	     85.66 	    341.97 
	   1358.27 	    -91.22 	      0.49 	      1.90 	     85.78 	    342.03 
	   1370.89 	    -91.12 	      0.49 	      1.90 	     85.89 	    342.09 
	   1383.63 	    -91.02 	      0.50 	      1.90 	     86.01 	    342.15 
	   1396.49 	    -90.93 	      0.50 	      1.90 	     86.12 	    342.20 
	   1409.47 	    -90.83 	      0.50 	      1.90 	     86.24 	    342.26 
	   1422.57 	    -90.73 	      0.50 	      1.90 	     86.36 	    342.32 
	   1435.79 	    -90.63 	      0.50 	      1.90 	     86.47 	    342.38 
	   1449.14 	    -90.54 	      0.50 	      1.90 	     86.59 	    342.44 
	   1462.61 	    -90.44 	      0.50 	      1.90 	     86.70 	    342.50 
	   1476.20 	    -90.34 	      0.50 	      1.90 	     86.82 	    342.56 
	   1489.92 	    -90.24 	      0.50 	      1.90 	     86.94 	    342.61 
	   1503.77 	    -90.14 	      0.50 	      1.90 	     87.06 	    342.67 
	   1517.75 	    -90.04 	      0.50 	      1.90 	     87.17 	    342.73 
	   1531.85 	    -89.95 	      0.50 	      1.90 	     87.29 	    342.79 
	   1546.09 	    -89.85 	      0.50 	      1.90 	     87.41 	    342.85 
	   1560.46 	    -89.75 	      0.50 	      1.90 	     87.53 	    342.91 
	   1574.96 	    -89.65 	      0.50 	      1.90 	     87.64 	    342.97 
	   1589.60 	    -89.55 	      0.50 	      1.90 	     87.76 	    343.03 
	   1604.38 	    -89.45 	      0.51 	      1.89 	     87.88 	    343.09 
	   1619.29 	    -89.35 	      0.51 	      1.89 	     88.00 	    343.15 
	   1634.34 	    -89.25 	      0.51 	      1.89 	     88.12 	    343.21 
	   1649.53 	    -89.15 	      0.51 	      1.89 	     88.24 	    343.27 
	   1664.86 	    -89.05 	      0.51 	      1.89 	     88.35 	    343.33 
	   1680.33 	    -88.95 	      0.51 	      1.89 	     88.47 	    343.39 
	   1695.95 	    -88.85 	      0.51 	      1.89 	     88.59 	    343.45 
	   1711.71 	    -88.75 	      0.51 	      1.89 	     88.71 	    343.51 
	   1727.62 	    -88.65 	      0.51 	      1.89 	     88.83 	    343.57 
	   1743.68 	    -88.55 	      0.51 	      1.89 	     88.95 	    343.63 
	   1759.89 	    -88.45 	      0.51 	      1.89 	     89.07 	    343.69 
	   1776.24 	    -88.35 	      0.51 	      1.89 	     89.19 	    343.75 
	   1792.75 	    -88.25 	      0.51 	      1.89 	     89.31 	    343.81 
	   1809.41 	    -88.15 	      0.51 	      1.89 	     89.43 	    343.87 
	   1826.23 	    -88.05 	      0.51 	      1.89 	     89.55 	    343.93 
	   1843.20 	    -87.94 	      0.52 	      1.89 	     89.67 	    343.99 
	   1860.34 	    -87.84 	      0.52 	      1.89 	     89.79 	    344.06 
	   1877.63 	    -87.74 	      0.52 	      1.89 	     89.91 	    344.12 
	   1895.08 	    -87.64 	      0.52 	      1.89 	     90.04 	    344.18 
	   1912.69 	    -87.54 	      0.52 	      1.89 	     90.16 	    344.24 
	   1930.47 	    -87.44 	      0.52 	      1.89 	     90.28 	    344.30 
	   1948.41 	    -87.33 	      0.52 	      1.89 	     90.40 	    344.36 
	   1966.52 	    -87.23 	      0.52 	      1.89 	     90.52 	    344.42 
	   1984.80 	    -87.13 	      0.52 	      1.89 	     90.64 	    344.49 
	   2003.24 	    -87.03 	      0.52 	      1.88 	     90.77 	    344.55 
	   2021.86 	    -86.92 	      0.52 	      1.88 	     90.89 	    344.61 
	   2040.66 	    -86.82 	      0.52 	      1.88 	     91.01 	    344.67 
	   2059.62 	    -86.72 	      0.52 	      1.88 	     91.13 	    344.73 
	   2078.76 	    -86.61 	      0.52 	      1.88 	     91.26 	    344.80 
	   2098.09 	    -86.51 	      0.52 	      1.88 	     91.38 	    344.86 
	   2117.59 	    -86.41 	      0.53 	      1.88 	     91.50 	    344.92 
	   2137.27 	    -86.30 	      0.53 	      1.88 	     91.63 	    344.98 
	   2157.13 	    -86.20 	      0.53 	      1.88 	     91.75 	    345.05 
	   2177.18 	    -86.10 	      0.53 	      1.88 	     91.87 	    345.11 
	   2197.42 	    -85.99 	      0.53 	      1.88 	     92.00 	    345.17 
	   2217.84 	    -85.89 	      0.53 	      1.88 	     92.12 	    345.24 
	   2238.45 	    -85.78 	      0.53 	      1.88 	     92.25 	    345.30 
	   2259.26 	    -85.68 	      0.53 	      1.88 	     92.37 	    345.36 
	   2280.26 	    -85.58 	      0.53 	      1.88 	     92.49 	    345.43 
	   2301.45 	    -85.47 	      0.53 	      1.88 	     92.62 	    345.49 
	   2322.84 	    -85.37 	      0.53 	      1.88 	     92.74 	    345.55 
	   2344.43 	    -85.26 	      0.53 	      1.88 	     92.87 	    345.62 
	   2366.22 	    -85.16 	      0.53 	      1.88 	     93.00 	    345.68 
	   2388.21 	    -85.05 	      0.53 	      1.88 	     93.12 	    345.74 
	   2410.41 	    -84.95 	      0.53 	      1.88 	     93.25 	    345.81 
	   2432.81 	    -84.84 	      0.54 	      1.88 	     93.37 	    345.87 
	   2455.42 	    -84.74 	      0.54 	      1.88 	     93.50 	    345.94 
	   2478.24 	    -84.63 	      0.54 	      1.88 	     93.62 	    346.00 
	   2501.28 	    -84.52 	      0.54 	      1.87 	     93.75 	    346.06 
	   2524.52 	    -84.42 	      0.54 	      1.87 	     93.88 	    346.13 
	   2547.99 	    -84.31 	      0.54 	      1.87 	     94.00 	    346.19 
	   2571.67 	    -84.20 	      0.54 	      1.87 	     94.13 	    346.26 
	   2595.57 	    -84.10 	      0.54 	      1.87 	     94.26 	    346.32 
	   2619.70 	    -83.99 	      0.54 	      1.87 	     94.39 	    346.39 
	   2644.04 	    -83.89 	      0.54 	      1.87 	     94.51 	    346.45 
	   2668.62 	    -83.78 	      0.54 	      1.87 	     94.64 	    346.52 
	   2693.42 	    -83.67 	      0.54 	      1.87 	     94.77 	    346.58 
	   2718.46 	    -83.56 	      0.54 	      1.87 	     94.90 	    346.65 
	   2743.72 	    -83.46 	      0.54 	      1.87 	     95.02 	    346.71 
	   2769.22 	    -83.35 	      0.54 	      1.87 	     95.15 	    346.78 
	   2794.96 	    -83.24 	      0.55 	      1.87 	     95.28 	    346.84 
	   2820.94 	    -83.13 	      0.55 	      1.87 	     95.41 	    346.91 
	   2847.16 	    -83.03 	      0.55 	      1.87 	     95.54 	    346.97 
	   2873.62 	    -82.92 	      0.55 	      1.87 	     95.67 	    347.04 
	   2900.33 	    -82.81 	      0.55 	      1.87 	     95.80 	    347.11 
	   2927.28 	    -82.70 	      0.55 	      1.87 	     95.93 	    347.17 
	   2954.49 	    -82.59 	      0.55 	      1.87 	     96.06 	    347.24 
	   2981.95 	    -82.48 	      0.55 	      1.87 	     96.19 	    347.31 
	   3009.67 	    -82.38 	      0.55 	      1.87 	     96.32 	    347.37 
	   3037.64 	    -82.27 	      0.55 	      1.87 	     96.45 	    347.44 
	   3065.87 	    -82.16 	      0.55 	      1.87 	     96.58 	    347.50 
	   3094.37 	    -82.05 	      0.55 	      1.87 	     96.71 	    347.57 
	   3123.13 	    -81.94 	      0.55 	      1.86 	     96.84 	    347.64 
	   3152.15 	    -81.83 	      0.55 	      1.86 	     96.97 	    347.71 
	   3181.45 	    -81.72 	      0.55 	      1.86 	     97.10 	    347.77 
	   3211.02 	    -81.61 	      0.56 	      1.86 	     97.23 	    347.84 
	   3240.87 	    -81.50 	      0.56 	      1.86 	     97.36 	    347.91 
	   3270.99 	    -81.39 	      0.56 	      1.86 	     97.50 	    347.97 
	   3301.39 	    -81.28 	      0.56 	      1.86 	     97.63 	    348.04 
	   3332.07 	    -81.17 	      0.56 	      1.86 	     97.76 	    348.11 
	   3363.04 	    -81.06 	      0.56 	      1.86 	     97.89 	    348.18 
	   3394.30 	    -80.95 	      0.56 	      1.86 	     98.03 	    348.24 
	   3425.85 	    -80.84 	      0.56 	      1.86 	     98.16 	    348.31 
	   3457.69 	    -80.73 	      0.56 	      1.86 	     98.29 	    348.38 
	   3489.82 	    -80.61 	      0.56 	      1.86 	     98.42 	    348.45 
	   3522.26 	    -80.50 	      0.56 	      1.86 	     98.56 	    348.52 
	   3555.00 	    -80.39 	      0.56 	      1.86 	     98.69 	    348.59 
	   3588.04 	    -80.28 	      0.56 	      1.86 	     98.83 	    348.65 
	   3621.39 	    -80.17 	      0.56 	      1.86 	     98.96 	    348.72 
	   3655.04 	    -80.06 	      0.57 	      1.86 	     99.09 	    348.79 
	   3689.02 	    -79.94 	      0.57 	      1.86 	     99.23 	    348.86 
	   3723.30 	    -79.83 	      0.57 	      1.86 	     99.36 	    348.93 
	   3757.91 	    -79.72 	      0.57 	      1.86 	     99.50 	    349.00 
	   3792.84 	    -79.61 	      0.57 	      1.86 	     99.63 	    349.07 
	   3828.09 	    -79.49 	      0.57 	      1.86 	     99.77 	    349.14 
	   3863.67 	    -79.38 	      0.57 	      1.86 	     99.90 	    349.21 
	   3899.58 	    -79.27 	      0.57 	      1.86 	    100.04 	    349.28 
	   3935.82 	    -79.15 	      0.57 	      1.86 	    100.17 	    349.35 
	   3972.40 	    -79.04 	      0.57 	      1.85 	    100.31 	    349.41 
	   4009.32 	    -78.93 	      0.57 	      1.85 	    100.45 	    349.48 
	   4046.59 	    -78.81 	      0.57 	      1.85 	    100.58 	    349.55 
	   4084.20 	    -78.70 	      0.57 	      1.85 	    100.72 	    349.62 
	   4122.16 	    -78.59 	      0.57 	      1.85 	    100.86 	    349.69 
	   4160.47 	    -78.47 	      0.57 	      1.85 	    100.99 	    349.77 
	   4199.14 	    -78.36 	      0.58 	      1.85 	    101.13 	    349.84 
	   4238.17 	    -78.24 	      0.58 	      1.85 	    101.27 	    349.91 
	   4277.56 	    -78.13 	      0.58 	      1.85 	    101.41 	    349.98 
	   4317.31 	    -78.01 	      0.58 	      1.85 	    101.54 	    350.05 
	   4357.44 	    -77.90 	      0.58 	      1.85 	    101.68 	    350.12 
	   4397.94 	    -77.78 	      0.58 	      1.85 	    101.82 	    350.19 
	   4438.82 	    -77.67 	      0.58 	      1.85 	    101.96 	    350.26 
	   4480.07 	    -77.55 	      0.58 	      1.85 	    102.10 	    350.33 
	   4521.71 	    -77.44 	      0.58 	      1.85 	    102.24 	    350.40 
	   4563.74 	    -77.32 	      0.58 	      1.85 	    102.38 	    350.47 
	   4606.15 	    -77.20 	      0.58 	      1.85 	    102.51 	    350.55 
	   4648.96 	    -77.09 	      0.58 	      1.85 	    102.65 	    350.62 
	   4692.17 	    -76.97 	      0.58 	      1.85 	    102.79 	    350.69 
	   4735.78 	    -76.86 	      0.58 	      1.85 	    102.93 	    350.76 
	   4779.80 	    -76.74 	      0.59 	      1.85 	    103.07 	    350.83 
	   4824.22 	    -76.62 	      0.59 	      1.85 	    103.21 	    350.91 
	   4869.06 	    -76.50 	      0.59 	      1.85 	    103.36 	    350.98 
	   4914.32 	    -76.39 	      0.59 	      1.85 	    103.50 	    351.05 
	   4959.99 	    -76.27 	      0.59 	      1.85 	    103.64 	    351.12 
	   5006.09 	    -76.15 	      0.59 	      1.85 	    103.78 	    351.20 
	   5052.62 	    -76.03 	      0.59 	      1.84 	    103.92 	    351.27 
	   5099.58 	    -75.92 	      0.59 	      1.84 	    104.06 	    351.34 
	   5146.98 	    -75.80 	      0.59 	      1.84 	    104.20 	    351.41 
	   5194.82 	    -75.68 	      0.59 	      1.84 	    104.35 	    351.49 
	   5243.10 	    -75.56 	      0.59 	      1.84 	    104.49 	    351.56 
	   5291.83 	    -75.44 	      0.59 	      1.84 	    104.63 	    351.63 
	   5341.01 	    -75.33 	      0.59 	      1.84 	    104.77 	    351.71 
	   5390.65 	    -75.21 	      0.59 	      1.84 	    104.92 	    351.78 
	   5440.76 	    -75.09 	      0.60 	      1.84 	    105.06 	    351.86 
	   5491.32 	    -74.97 	      0.60 	      1.84 	    105.20 	    351.93 
	   5542.36 	    -74.85 	      0.60 	      1.84 	    105.35 	    352.00 
	   5593.87 	    -74.73 	      0.60 	      1.84 	    105.49 	    352.08 
	   5645.87 	    -74.61 	      0.60 	      1.84 	    105.64 	    352.15 
	   5698.34 	    -74.49 	      0.60 	      1.84 	    105.78 	    352.23 
	   5751.30 	    -74.37 	      0.60 	      1.84 	    105.92 	    352.30 
	   5804.76 	    -74.25 	      0.60 	      1.84 	    106.07 	    352.38 
	   5858.71 	    -74.13 	      0.60 	      1.84 	    106.21 	    352.45 
	   5913.16 	    -74.01 	      0.60 	      1.84 	    106.36 	    352.52 
	   5968.12 	    -73.89 	      0.60 	      1.84 	    106.51 	    352.60 
	   6023.59 	    -73.77 	      0.60 	      1.84 	    106.65 	    352.67 
	   6079.57 	    -73.65 	      0.60 	      1.84 	    106.80 	    352.75 
	   6136.08 	    -73.52 	      0.61 	      1.84 	    106.94 	    352.83 
	   6193.11 	    -73.40 	      0.61 	      1.84 	    107.09 	    352.90 
	   6250.67 	    -73.28 	      0.61 	      1.84 	    107.24 	    352.98 
	   6308.77 	    -73.16 	      0.61 	      1.84 	    107.38 	    353.05 
	   6367.40 	    -73.04 	      0.61 	      1.84 	    107.53 	    353.13 
	   6426.58 	    -72.91 	      0.61 	      1.83 	    107.68 	    353.20 
	   6486.31 	    -72.79 	      0.61 	      1.83 	    107.83 	    353.28 
	   6546.60 	    -72.67 	      0.61 	      1.83 	    107.97 	    353.36 
	   6607.45 	    -72.55 	      0.61 	      1.83 	    108.12 	    353.43 
	   6668.86 	    -72.42 	      0.61 	      1.83 	    108.27 	    353.51 
	   6730.84 	    -72.30 	      0.61 	      1.83 	    108.42 	    353.59 
	   6793.40 	    -72.18 	      0.61 	      1.83 	    108.57 	    353.66 
	   6856.54 	    -72.05 	      0.61 	      1.83 	    108.72 	    353.74 
	   6920.27 	    -71.93 	      0.61 	      1.83 	    108.87 	    353.82 
	   6984.58 	    -71.81 	      0.62 	      1.83 	    109.02 	    353.89 
	   7049.50 	    -71.68 	      0.62 	      1.83 	    109.17 	    353.97 
	   7115.02 	    -71.56 	      0.62 	      1.83 	    109.32 	    354.05 
	   7181.15 	    -71.43 	      0.62 	      1.83 	    109.47 	    354.13 
	   7247.90 	    -71.31 	      0.62 	      1.83 	    109.62 	    354.20 
	   7315.26 	    -71.18 	      0.62 	      1.83 	    109.77 	    354.28 
	   7383.25 	    -71.06 	      0.62 	      1.83 	    109.92 	    354.36 
	   7451.87 	    -70.93 	      0.62 	      1.83 	    110.07 	    354.44 
	   7521.13 	    -70.81 	      0.62 	      1.83 	    110.22 	    354.52 
	   7591.04 	    -70.68 	      0.62 	      1.83 	    110.37 	    354.59 
	   7661.59 	    -70.56 	      0.62 	      1.83 	    110.52 	    354.67 
	   7732.80 	    -70.43 	      0.62 	      1.83 	    110.68 	    354.75 
	   7804.67 	    -70.31 	      0.62 	      1.83 	    110.83 	    354.83 
	   7877.21 	    -70.18 	      0.63 	      1.83 	    110.98 	    354.91 
	   7950.42 	    -70.05 	      0.63 	      1.83 	    111.13 	    354.99 
	   8024.32 	    -69.93 	      0.63 	      1.83 	    111.29 	    355.07 
	   8098.90 	    -69.80 	      0.63 	      1.83 	    111.44 	    355.15 
	   8174.17 	    -69.67 	      0.63 	      1.83 	    111.60 	    355.23 
	   8250.14 	    -69.55 	      0.63 	      1.83 	    111.75 	    355.31 
	   8326.82 	    -69.42 	      0.63 	      1.82 	    111.90 	    355.39 
	   8404.21 	    -69.29 	      0.63 	      1.82 	    112.06 	    355.46 
	   8482.33 	    -69.16 	      0.63 	      1.82 	    112.21 	    355.54 
	   8561.16 	    -69.03 	      0.63 	      1.82 	    112.37 	    355.62 
	   8640.73 	    -68.91 	      0.63 	      1.82 	    112.52 	    355.71 
	   8721.04 	    -68.78 	      0.63 	      1.82 	    112.68 	    355.79 
	   8802.10 	    -68.65 	      0.63 	      1.82 	    112.83 	    355.87 
	   8883.91 	    -68.52 	      0.63 	      1.82 	    112.99 	    355.95 
	   8966.48 	    -68.39 	      0.64 	      1.82 	    113.15 	    356.03 
	   9049.82 	    -68.26 	      0.64 	      1.82 	    113.30 	    356.11 
	   9133.93 	    -68.13 	      0.64 	      1.82 	    113.46 	    356.19 
	   9218.82 	    -68.00 	      0.64 	      1.82 	    113.62 	    356.27 
	   9304.50 	    -67.87 	      0.64 	      1.82 	    113.77 	    356.35 
	   9390.98 	    -67.74 	      0.64 	      1.82 	    113.93 	    356.43 
	   9478.27 	    -67.61 	      0.64 	      1.82 	    114.09 	    356.51 
	   9566.36 	    -67.48 	      0.64 	      1.82 	    114.25 	    356.60 
	   9655.27 	    -67.35 	      0.64 	      1.82 	    114.41 	    356.68 
	   9745.01 	    -67.22 	      0.64 	      1.82 	    114.56 	    356.76 
	   9835.59 	    -67.09 	      0.64 	      1.82 	    114.72 	    356.84 
	   9927.00 	    -66.96 	      0.64 	      1.82 	    114.88 	    356.92 
	  10019.26 	    -66.83 	      0.64 	      1.82 	    115.04 	    357.01 
	  10112.39 	    -66.70 	      0.65 	      1.82 	    115.20 	    357.09 
	  10206.37 	    -66.57 	      0.65 	      1.82 	    115.36 	    357.17 
	  10301.24 	    -66.43 	      0.65 	      1.82 	    115.52 	    357.26 
	  10396.98 	    -66.30 	      0.65 	      1.82 	    115.68 	    357.34 
	  10493.61 	    -66.17 	      0.65 	      1.82 	    115.84 	    357.42 
	  10591.14 	    -66.04 	      0.65 	      1.82 	    116.00 	    357.50 
	  10689.58 	    -65.90 	      0.65 	      1.82 	    116.17 	    357.59 
	  10788.93 	    -65.77 	      0.65 	      1.81 	    116.33 	    357.67 
	  10889.21 	    -65.64 	      0.65 	      1.81 	    116.49 	    357.76 
	  10990.42 	    -65.50 	      0.65 	      1.81 	    116.65 	    357.84 
	  11092.56 	    -65.37 	      0.65 	      1.81 	    116.81 	    357.92 
	  11195.66 	    -65.24 	      0.65 	      1.81 	    116.98 	    358.01 
	  11299.72 	    -65.10 	      0.66 	      1.81 	    117.14 	    358.09 
	  11404.74 	    -64.97 	      0.66 	      1.81 	    117.30 	    358.18 
	  11510.74 	    -64.83 	      0.66 	      1.81 	    117.47 	    358.26 
	  11617.72 	    -64.70 	      0.66 	      1.81 	    117.63 	    358.35 
	  11725.70 	    -64.56 	      0.66 	      1.81 	    117.79 	    358.43 
	  11834.69 	    -64.43 	      0.66 	      1.81 	    117.96 	    358.52 
	  11944.68 	    -64.29 	      0.66 	      1.81 	    118.12 	    358.60 
	  12055.70 	    -64.16 	      0.66 	      1.81 	    118.29 	    358.69 
	  12167.75 	    -64.02 	      0.66 	      1.81 	    118.45 	    358.77 
	  12280.84 	    -63.89 	      0.66 	      1.81 	    118.62 	    358.86 
	  12394.98 	    -63.75 	      0.66 	      1.81 	    118.78 	    358.94 
	  12510.18 	    -63.62 	      0.66 	      1.81 	    118.95 	    359.03 
	  12626.46 	    -63.48 	      0.66 	      1.81 	    119.12 	    359.11 
	  12743.81 	    -63.34 	      0.67 	      1.81 	    119.28 	    359.20 
	  12862.26 	    -63.20 	      0.67 	      1.81 	    119.45 	    359.29 
	  12981.80 	    -63.07 	      0.67 	      1.81 	    119.62 	    359.37 
	  13102.46 	    -62.93 	      0.67 	      1.81 	    119.79 	    359.46 
	  13224.24 	    -62.79 	      0.67 	      1.81 	    119.95 	    359.55 
	  13347.15 	    -62.65 	      0.67 	      1.81 	    120.12 	    359.63 
	  13471.20 	    -62.52 	      0.67 	      1.81 	    120.29 	    359.72 
	  13596.41 	    -62.38 	      0.67 	      1.81 	    120.46 	    359.81 
	  13722.78 	    -62.24 	      0.67 	      1.81 	    120.63 	    359.90 
	  13850.32 	    -62.10 	      0.67 	      1.81 	    120.80 	    359.98 
	  13979.05 	    -61.96 	      0.67 	      1.81 	    120.97 	    360.07 
	  14108.97 	    -61.82 	      0.67 	      1.81 	    121.14 	    360.16 
	  14240.11 	    -61.68 	      0.67 	      1.80 	    121.31 	    360.25 
	  14372.46 	    -61.54 	      0.68 	      1.80 	    121.48 	    360.33 
	  14506.04 	    -61.40 	      0.68 	      1.80 	    121.65 	    360.42 
	  14640.87 	    -61.26 	      0.68 	      1.80 	    121.82 	    360.51 
	  14776.94 	    -61.12 	      0.68 	      1.80 	    121.99 	    360.60 
	  14914.28 	    -60.98 	      0.68 	      1.80 	    122.16 	    360.69 
	  15052.90 	    -60.84 	      0.68 	      1.80 	    122.33 	    360.78 
	  15192.81 	    -60.70 	      0.68 	      1.80 	    122.51 	    360.87 
	  15334.02 	    -60.56 	      0.68 	      1.80 	    122.68 	    360.96 
	  15476.53 	    -60.42 	      0.68 	      1.80 	    122.85 	    361.04 
	  15620.38 	    -60.28 	      0.68 	      1.80 	    123.02 	    361.13 
	  15765.56 	    -60.14 	      0.68 	      1.80 	    123.20 	    361.22 
	  15912.09 	    -59.99 	      0.68 	      1.80 	    123.37 	    361.31 
	  16059.98 	    -59.85 	      0.69 	      1.80 	    123.54 	    361.40 
	  16209.25 	    -59.71 	      0.69 	      1.80 	    123.72 	    361.49 
	  16359.90 	    -59.57 	      0.69 	      1.80 	    123.89 	    361.58 
	  16511.96 	    -59.42 	      0.69 	      1.80 	    124.07 	    361.67 
	  16665.42 	    -59.28 	      0.69 	      1.80 	    124.24 	    361.77 
	  16820.32 	    -59.14 	      0.69 	      1.80 	    124.42 	    361.86 
	  16976.65 	    -58.99 	      0.69 	      1.80 	    124.60 	    361.95 
	  17134.44 	    -58.85 	      0.69 	      1.80 	    124.77 	    362.04 
	  17293.69 	    -58.71 	      0.69 	      1.80 	    124.95 	    362.13 
	  17454.42 	    -58.56 	      0.69 	      1.80 	    125.13 	    362.22 
	  17616.65 	    -58.42 	      0.69 	      1.80 	    125.30 	    362.31 
	  17780.38 	    -58.27 	      0.69 	      1.80 	    125.48 	    362.40 
	  17945.64 	    -58.13 	      0.70 	      1.80 	    125.66 	    362.50 
	  18112.43 	    -57.98 	      0.70 	      1.80 	    125.84 	    362.59 
	  18280.78 	    -57.84 	      0.70 	      1.80 	    126.01 	    362.68 
	  18450.68 	    -57.69 	      0.70 	      1.80 	    126.19 	    362.77 
	  18622.17 	    -57.54 	      0.70 	      1.80 	    126.37 	    362.86 
	  18795.25 	    -57.40 	      0.70 	      1.80 	    126.55 	    362.96 
	  18969.94 	    -57.25 	      0.70 	      1.79 	    126.73 	    363.05 
	  19146.25 	    -57.10 	      0.70 	      1.79 	    126.91 	    363.14 
	  19324.20 	    -56.96 	      0.70 	      1.79 	    127.09 	    363.24 
	  19503.81 	    -56.81 	      0.70 	      1.79 	    127.27 	    363.33 
	  19685.08 	    -56.66 	      0.70 	      1.79 	    127.45 	    363.42 
	  19868.04 	    -56.52 	      0.70 	      1.79 	    127.64 	    363.52 
	  20052.70 	    -56.37 	      0.71 	      1.79 	    127.82 	    363.61 
	  20239.08 	    -56.22 	      0.71 	      1.79 	    128.00 	    363.70 
	  20427.19 	    -56.07 	      0.71 	      1.79 	    128.18 	    363.80 
	  20617.04 	    -55.92 	      0.71 	      1.79 	    128.36 	    363.89 
	  20808.66 	    -55.77 	      0.71 	      1.79 	    128.55 	    363.99 
	  21002.07 	    -55.62 	      0.71 	      1.79 	    128.73 	    364.08 
	  21197.27 	    -55.48 	      0.71 	      1.79 	    128.92 	    364.18 
	  21394.28 	    -55.33 	      0.71 	      1.79 	    129.10 	    364.27 
	  21593.12 	    -55.18 	      0.71 	      1.79 	    129.28 	    364.37 
	  21793.82 	    -55.03 	      0.71 	      1.79 	    129.47 	    364.46 
	  21996.38 	    -54.88 	      0.71 	      1.79 	    129.65 	    364.56 
	  22200.82 	    -54.72 	      0.71 	      1.79 	    129.84 	    364.65 
	  22407.16 	    -54.57 	      0.72 	      1.79 	    130.02 	    364.75 
	  22615.42 	    -54.42 	      0.72 	      1.79 	    130.21 	    364.84 
	  22825.61 	    -54.27 	      0.72 	      1.79 	    130.40 	    364.94 
	  23037.76 	    -54.12 	      0.72 	      1.79 	    130.58 	    365.04 
	  23251.88 	    -53.97 	      0.72 	      1.79 	    130.77 	    365.13 
	  23467.99 	    -53.82 	      0.72 	      1.79 	    130.96 	    365.23 
	  23686.11 	    -53.66 	      0.72 	      1.79 	    131.15 	    365.33 
	  23906.26 	    -53.51 	      0.72 	      1.79 	    131.34 	    365.42 
	  24128.45 	    -53.36 	      0.72 	      1.79 	    131.52 	    365.52 
	  24352.71 	    -53.20 	      0.72 	      1.79 	    131.71 	    365.62 
	  24579.05 	    -53.05 	      0.72 	      1.79 	    131.90 	    365.71 
	  24807.49 	    -52.90 	      0.72 	      1.79 	    132.09 	    365.81 
	  25038.06 	    -52.74 	      0.73 	      1.79 	    132.28 	    365.91 
	  25270.77 	    -52.59 	      0.73 	      1.79 	    132.47 	    366.01 
	  25505.65 	    -52.43 	      0.73 	      1.79 	    132.66 	    366.11 
	  25742.71 	    -52.28 	      0.73 	      1.78 	    132.85 	    366.20 
	  25981.97 	    -52.12 	      0.73 	      1.78 	    133.04 	    366.30 
	  26223.45 	    -51.97 	      0.73 	      1.78 	    133.24 	    366.40 
	  26467.18 	    -51.81 	      0.73 	      1.78 	    133.43 	    366.50 
	  26713.18 	    -51.66 	      0.73 	      1.78 	    133.62 	    366.60 
	  26961.46 	    -51.50 	      0.73 	      1.78 	    133.81 	    366.70 
	  27212.04 	    -51.35 	      0.73 	      1.78 	    134.01 	    366.80 
	  27464.96 	    -51.19 	      0.73 	      1.78 	    134.20 	    366.90 
	  27720.23 	    -51.03 	      0.74 	      1.78 	    134.40 	    367.00 
	  27977.87 	    -50.88 	      0.74 	      1.78 	    134.59 	    367.10 
	  28237.91 	    -50.72 	      0.74 	      1.78 	    134.78 	    367.20 
	  28500.36 	    -50.56 	      0.74 	      1.78 	    134.98 	    367.30 
	  28765.25 	    -50.40 	      0.74 	      1.78 	    135.17 	    367.40 
	  29032.60 	    -50.24 	      0.74 	      1.78 	    135.37 	    367.50 
	  29302.44 	    -50.09 	      0.74 	      1.78 	    135.57 	    367.60 
	  29574.79 	    -49.93 	      0.74 	      1.78 	    135.76 	    367.70 
	  29849.66 	    -49.77 	      0.74 	      1.78 	    135.96 	    367.80 
	  30127.10 	    -49.61 	      0.74 	      1.78 	    136.16 	    367.90 
	  30407.11 	    -49.45 	      0.74 	      1.78 	    136.36 	    368.00 
	  30689.72 	    -49.29 	      0.74 	      1.78 	    136.55 	    368.10 
	  30974.96 	    -49.13 	      0.75 	      1.78 	    136.75 	    368.20 
	  31262.85 	    -48.97 	      0.75 	      1.78 	    136.95 	    368.31 
	  31553.42 	    -48.81 	      0.75 	      1.78 	    137.15 	    368.41 
	  31846.68 	    -48.65 	      0.75 	      1.78 	    137.35 	    368.51 
	  32142.68 	    -48.49 	      0.75 	      1.78 	    137.55 	    368.61 
	  32441.42 	    -48.33 	      0.75 	      1.78 	    137.75 	    368.72 
	  32742.94 	    -48.16 	      0.75 	      1.78 	    137.95 	    368.82 
	  33047.27 	    -48.00 	      0.75 	      1.78 	    138.15 	    368.92 
	  33354.42 	    -47.84 	      0.75 	      1.78 	    138.35 	    369.02 
	  33664.42 	    -47.68 	      0.75 	      1.78 	    138.56 	    369.13 
	  33977.31 	    -47.51 	      0.75 	      1.78 	    138.76 	    369.23 
	  34293.11 	    -47.35 	      0.76 	      1.78 	    138.96 	    369.34 
	  34611.84 	    -47.19 	      0.76 	      1.78 	    139.16 	    369.44 
	  34933.53 	    -47.02 	      0.76 	      1.78 	    139.37 	    369.54 
	  35258.22 	    -46.86 	      0.76 	      1.78 	    139.57 	    369.65 
	  35585.92 	    -46.70 	      0.76 	      1.77 	    139.78 	    369.75 
	  35916.66 	    -46.53 	      0.76 	      1.77 	    139.98 	    369.86 
	  36250.48 	    -46.37 	      0.76 	      1.77 	    140.18 	    369.96 
	  36587.41 	    -46.20 	      0.76 	      1.77 	    140.39 	    370.07 
	  36927.46 	    -46.04 	      0.76 	      1.77 	    140.60 	    370.17 
	  37270.68 	    -45.87 	      0.76 	      1.77 	    140.80 	    370.28 
	  37617.08 	    -45.70 	      0.76 	      1.77 	    141.01 	    370.38 
	  37966.71 	    -45.54 	      0.77 	      1.77 	    141.22 	    370.49 
	  38319.58 	    -45.37 	      0.77 	      1.77 	    141.42 	    370.59 
	  38675.74 	    -45.21 	      0.77 	      1.77 	    141.63 	    370.70 
	  39035.20 	    -45.04 	      0.77 	      1.77 	    141.84 	    370.81 
	  39398.01 	    -44.87 	      0.77 	      1.77 	    142.05 	    370.91 
	  39764.18 	    -44.70 	      0.77 	      1.77 	    142.26 	    371.02 
	  40133.77 	    -44.53 	      0.77 	      1.77 	    142.47 	    371.12 
	  40506.78 	    -44.37 	      0.77 	      1.77 	    142.68 	    371.23 
	  40883.26 	    -44.20 	      0.77 	      1.77 	    142.89 	    371.34 
	  41263.25 	    -44.03 	      0.77 	      1.77 	    143.10 	    371.45 
	  41646.76 	    -43.86 	      0.77 	      1.77 	    143.31 	    371.55 
	  42033.84 	    -43.69 	      0.78 	      1.77 	    143.52 	    371.66 
	  42424.51 	    -43.52 	      0.78 	      1.77 	    143.73 	    371.77 
	  42818.82 	    -43.35 	      0.78 	      1.77 	    143.95 	    371.88 
	  43216.79 	    -43.18 	      0.78 	      1.77 	    144.16 	    371.99 
	  43618.46 	    -43.01 	      0.78 	      1.77 	    144.37 	    372.09 
	  44023.87 	    -42.84 	      0.78 	      1.77 	    144.59 	    372.20 
	  44433.04 	    -42.67 	      0.78 	      1.77 	    144.80 	    372.31 
	  44846.01 	    -42.50 	      0.78 	      1.77 	    145.02 	    372.42 
	  45262.83 	    -42.32 	      0.78 	      1.77 	    145.23 	    372.53 
	  45683.51 	    -42.15 	      0.78 	      1.77 	    145.45 	    372.64 
	  46108.11 	    -41.98 	      0.78 	      1.77 	    145.66 	    372.75 
	  46536.65 	    -41.81 	      0.79 	      1.77 	    145.88 	    372.86 
	  46969.18 	    -41.63 	      0.79 	      1.77 	    146.10 	    372.97 
	  47405.72 	    -41.46 	      0.79 	      1.77 	    146.31 	    373.08 
	  47846.33 	    -41.29 	      0.79 	      1.77 	    146.53 	    373.19 
	  48291.03 	    -41.11 	      0.79 	      1.77 	    146.75 	    373.30 
	  48739.86 	    -40.94 	      0.79 	      1.77 	    146.97 	    373.41 
	  49192.86 	    -40.76 	      0.79 	      1.77 	    147.19 	    373.52 
	  49650.08 	    -40.59 	      0.79 	      1.77 	    147.41 	    373.63 
	  50111.54 	    -40.41 	      0.79 	      1.76 	    147.63 	    373.74 
	  50577.29 	    -40.24 	      0.79 	      1.76 	    147.85 	    373.85 
	  51047.37 	    -40.06 	      0.80 	      1.76 	    148.07 	    373.96 
	  51521.82 	    -39.88 	      0.80 	      1.76 	    148.29 	    374.08 
	  52000.68 	    -39.71 	      0.80 	      1.76 	    148.51 	    374.19 
	  52484.00 	    -39.53 	      0.80 	      1.76 	    148.73 	    374.30 
	  52971.80 	    -39.35 	      0.80 	      1.76 	    148.96 	    374.41 
	  53464.13 	    -39.18 	      0.80 	      1.76 	    149.18 	    374.53 
	  53961.05 	    -39.00 	      0.80 	      1.76 	    149.40 	    374.64 
	  54462.58 	    -38.82 	      0.80 	      1.76 	    149.63 	    374.75 
	  54968.77 	    -38.64 	      0.80 	      1.76 	    149.85 	    374.86 
	  55479.67 	    -38.46 	      0.80 	      1.76 	    150.08 	    374.98 
	  55995.31 	    -38.28 	      0.80 	      1.76 	    150.30 	    375.09 
	  56515.75 	    -38.10 	      0.81 	      1.76 	    150.53 	    375.20 
	  57041.03 	    -37.92 	      0.81 	      1.76 	    150.76 	    375.32 
	  57571.18 	    -37.74 	      0.81 	      1.76 	    150.98 	    375.43 
	  58106.27 	    -37.56 	      0.81 	      1.76 	    151.21 	    375.55 
	  58646.33 	    -37.38 	      0.81 	      1.76 	    151.44 	    375.66 
	  59191.40 	    -37.20 	      0.81 	      1.76 	    151.67 	    375.78 
	  59741.55 	    -37.02 	      0.81 	      1.76 	    151.89 	    375.89 
	  60296.80 	    -36.84 	      0.81 	      1.76 	    152.12 	    376.01 
	  60857.22 	    -36.66 	      0.81 	      1.76 	    152.35 	    376.12 
	  61422.85 	    -36.47 	      0.81 	      1.76 	    152.58 	    376.24 
	  61993.73 	    -36.29 	      0.82 	      1.76 	    152.81 	    376.35 
	  62569.92 	    -36.11 	      0.82 	      1.76 	    153.05 	    376.47 
	  63151.46 	    -35.92 	      0.82 	      1.76 	    153.28 	    376.58 
	  63738.41 	    -35.74 	      0.82 	      1.76 	    153.51 	    376.70 
	  64330.82 	    -35.56 	      0.82 	      1.76 	    153.74 	    376.82 
	  64928.73 	    -35.37 	      0.82 	      1.76 	    153.98 	    376.93 
	  65532.20 	    -35.19 	      0.82 	      1.76 	    154.21 	    377.05 
	  66141.28 	    -35.00 	      0.82 	      1.76 	    154.44 	    377.17 
	  66756.01 	    -34.82 	      0.82 	      1.76 	    154.68 	    377.28 
	  67376.46 	    -34.63 	      0.82 	      1.76 	    154.91 	    377.40 
	  68002.68 	    -34.44 	      0.83 	      1.76 	    155.15 	    377.52 
	  68634.72 	    -34.26 	      0.83 	      1.76 	    155.39 	    377.64 
	  69272.63 	    -34.07 	      0.83 	      1.76 	    155.62 	    377.76 
	  69916.48 	    -33.88 	      0.83 	      1.76 	    155.86 	    377.87 
	  70566.30 	    -33.69 	      0.83 	      1.76 	    156.10 	    377.99 
	  71222.17 	    -33.51 	      0.83 	      1.76 	    156.34 	    378.11 
	  71884.13 	    -33.32 	      0.83 	      1.76 	    156.57 	    378.23 
	  72552.24 	    -33.13 	      0.83 	      1.76 	    156.81 	    378.35 
	  73226.56 	    -32.94 	      0.83 	      1.75 	    157.05 	    378.47 
	  73907.16 	    -32.75 	      0.83 	      1.75 	    157.29 	    378.59 
	  74594.07 	    -32.56 	      0.84 	      1.75 	    157.53 	    378.71 
	  75287.37 	    -32.37 	      0.84 	      1.75 	    157.78 	    378.83 
	  75987.12 	    -32.18 	      0.84 	      1.75 	    158.02 	    378.95 
	  76693.37 	    -31.99 	      0.84 	      1.75 	    158.26 	    379.07 
	  77406.18 	    -31.80 	      0.84 	      1.75 	    158.50 	    379.19 
	  78125.62 	    -31.61 	      0.84 	      1.75 	    158.75 	    379.31 
	  78851.74 	    -31.42 	      0.84 	      1.75 	    158.99 	    379.43 
	  79584.61 	    -31.22 	      0.84 	      1.75 	    159.23 	    379.55 
	  80324.30 	    -31.03 	      0.84 	      1.75 	    159.48 	    379.67 
	  81070.86 	    -30.84 	      0.84 	      1.75 	    159.72 	    379.79 
	  81824.35 	    -30.64 	      0.85 	      1.75 	    159.97 	    379.91 
	  82584.86 	    -30.45 	      0.85 	      1.75 	    160.22 	    380.04 
	  83352.42 	    -30.26 	      0.85 	      1.75 	    160.46 	    380.16 
	  84127.13 	    -30.06 	      0.85 	      1.75 	    160.71 	    380.28 
	  84909.03 	    -29.87 	      0.85 	      1.75 	    160.96 	    380.40 
	  85698.20 	    -29.67 	      0.85 	      1.75 	    161.21 	    380.52 
	  86494.71 	    -29.48 	      0.85 	      1.75 	    161.46 	    380.65 
	  87298.62 	    -29.28 	      0.85 	      1.75 	    161.71 	    380.77 
	  88110.00 	    -29.08 	      0.85 	      1.75 	    161.96 	    380.89 
	  88928.92 	    -28.89 	      0.85 	      1.75 	    162.21 	    381.02 
	  89755.46 	    -28.69 	      0.86 	      1.75 	    162.46 	    381.14 
	  90589.67 	    -28.49 	      0.86 	      1.75 	    162.71 	    381.26 
	  91431.64 	    -28.30 	      0.86 	      1.75 	    162.97 	    381.39 
	  92281.43 	    -28.10 	      0.86 	      1.75 	    163.22 	    381.51 
	  93139.13 	    -27.90 	      0.86 	      1.75 	    163.47 	    381.64 
	  94004.79 	    -27.70 	      0.86 	      1.75 	    163.73 	    381.76 
	  94878.50 	    -27.50 	      0.86 	      1.75 	    163.98 	    381.89 
	  95760.33 	    -27.30 	      0.86 	      1.75 	    164.24 	    382.01 
	  96650.36 	    -27.10 	      0.86 	      1.75 	    164.49 	    382.14 
	  97548.66 	    -26.90 	      0.86 	      1.75 	    164.75 	    382.26 
	  98455.31 	    -26.70 	      0.87 	      1.75 	    165.01 	    382.39 
	  99370.38 	    -26.50 	      0.87 	      1.75 	    165.27 	    382.51 
	 100293.96 	    -26.30 	      0.87 	      1.75 	    165.52 	    382.64 
	 101226.12 	    -26.10 	      0.87 	      1.75 	    165.78 	    382.77 
	 102166.95 	    -25.89 	      0.87 	      1.75 	    166.04 	    382.89 
	 103116.52 	    -25.69 	      0.87 	      1.75 	    166.30 	    383.02 
	 104074.92 	    -25.49 	      0.87 	      1.75 	    166.56 	    383.15 
	 105042.23 	    -25.28 	      0.87 	      1.75 	    166.82 	    383.27 
	 106018.52 	    -25.08 	      0.87 	      1.75 	    167.09 	    383.40 
	 107003.89 	    -24.87 	      0.88 	      1.75 	    167.35 	    383.53 
	 107998.42 	    -24.67 	      0.88 	      1.75 	    167.61 	    383.65 
	 109002.19 	    -24.46 	      0.88 	      1.75 	    167.88 	    383.78 
	 110015.29 	    -24.26 	      0.88 	      1.75 	    168.14 	    383.91 
	 111037.81 	    -24.05 	      0.88 	      1.75 	    168.40 	    384.04 
	 112069.83 	    -23.85 	      0.88 	      1.74 	    168.67 	    384.17 
	 113111.44 	    -23.64 	      0.88 	      1.74 	    168.94 	    384.30 
	 114162.73 	    -23.43 	      0.88 	      1.74 	    169.20 	    384.43 
	 115223.80 	    -23.23 	      0.88 	      1.74 	    169.47 	    384.55 
	 116294.72 	    -23.02 	      0.88 	      1.74 	    169.74 	    384.68 
	 117375.60 	    -22.81 	      0.89 	      1.74 	    170.01 	    384.81 
	 118466.53 	    -22.60 	      0.89 	      1.74 	    170.28 	    384.94 
	 119567.59 	    -22.39 	      0.89 	      1.74 	    170.55 	    385.07 
	 120678.89 	    -22.18 	      0.89 	      1.74 	    170.82 	    385.20 
	 121800.52 	    -21.97 	      0.89 	      1.74 	    171.09 	    385.33 
	 122932.57 	    -21.76 	      0.89 	      1.74 	    171.36 	    385.46 
	 124075.15 	    -21.55 	      0.89 	      1.74 	    171.63 	    385.59 
	 125228.34 	    -21.34 	      0.89 	      1.74 	    171.90 	    385.73 
	 126392.25 	    -21.13 	      0.89 	      1.74 	    172.18 	    385.86 
	 127566.98 	    -20.92 	      0.90 	      1.74 	    172.45 	    385.99 
	 128752.63 	    -20.70 	      0.90 	      1.74 	    172.73 	    386.12 
	 129949.30 	    -20.49 	      0.90 	      1.74 	    173.00 	    386.25 
	 131157.09 	    -20.28 	      0.90 	      1.74 	    173.28 	    386.38 
	 132376.10 	    -20.06 	      0.90 	      1.74 	    173.55 	    386.52 
	 133606.45 	    -19.85 	      0.90 	      1.74 	    173.83 	    386.65 
	 134848.23 	    -19.63 	      0.90 	      1.74 	    174.11 	    386.78 
	 136101.55 	    -19.42 	      0.90 	      1.74 	    174.39 	    386.91 
	 137366.52 	    -19.20 	      0.90 	      1.74 	    174.67 	    387.05 
	 138643.25 	    -18.99 	      0.91 	      1.74 	    174.95 	    387.18 
	 139931.84 	    -18.77 	      0.91 	      1.74 	    175.23 	    387.31 
	 141232.41 	    -18.55 	      0.91 	      1.74 	    175.51 	    387.45 
	 142545.07 	    -18.34 	      0.91 	      1.74 	    175.79 	    387.58 
	 143869.93 	    -18.12 	      0.91 	      1.74 	    176.07 	    387.71 
	 145207.10 	    -17.90 	      0.91 	      1.74 	    176.36 	    387.85 
	 146556.70 	    -17.68 	      0.91 	      1.74 	    176.64 	    387.98 
	 147918.85 	    -17.46 	      0.91 	      1.74 	    176.93 	    388.12 
	 149293.65 	    -17.24 	      0.91 	      1.74 	    177.21 	    388.25 
	 150681.23 	    -17.02 	      0.92 	      1.74 	    177.50 	    388.39 
	 152081.71 	    -16.80 	      0.92 	      1.74 	    177.78 	    388.52 
	 153495.21 	    -16.58 	      0.92 	      1.74 	    178.07 	    388.66 
	 154921.84 	    -16.36 	      0.92 	      1.74 	    178.36 	    388.79 
	 156361.73 	    -16.14 	      0.92 	      1.74 	    178.65 	    388.93 
	 157815.01 	    -15.92 	      0.92 	      1.74 	    178.94 	    389.07 
	 159281.79 	    -15.70 	      0.92 	      1.74 	    179.23 	    389.20 
	 160762.21 	    -15.47 	      0.92 	      1.74 	    179.52 	    389.34 
	 162256.38 	    -15.25 	      0.92 	      1.74 	    179.81 	    389.48 
	 163764.44 	    -15.03 	      0.93 	      1.74 	    180.10 	    389.61 
	 165286.52 	    -14.80 	      0.93 	      1.74 	    180.40 	    389.75 
	 166822.75 	    -14.58 	      0.93 	      1.74 	    180.69 	    389.89 
	 168373.25 	    -14.35 	      0.93 	      1.74 	    180.98 	    390.02 
	 169938.16 	    -14.13 	      0.93 	      1.74 	    181.28 	    390.16 
	 171517.62 	    -13.90 	      0.93 	      1.74 	    181.58 	    390.30 
	 173111.76 	    -13.67 	      0.93 	      1.74 	    181.87 	    390.44 
	 174720.72 	    -13.45 	      0.93 	      1.74 	    182.17 	    390.58 
	 176344.62 	    -13.22 	      0.93 	      1.74 	    182.47 	    390.71 
	 177983.63 	    -12.99 	      0.94 	      1.74 	    182.77 	    390.85 
	 179637.86 	    -12.76 	      0.94 	      1.74 	    183.07 	    390.99 
	 181307.47 	    -12.53 	      0.94 	      1.74 	    183.37 	    391.13 
	 182992.60 	    -12.30 	      0.94 	      1.74 	    183.67 	    391.27 
	 184693.39 	    -12.07 	      0.94 	      1.73 	    183.97 	    391.41 
	 186409.99 	    -11.84 	      0.94 	      1.73 	    184.27 	    391.55 
	 188142.55 	    -11.61 	      0.94 	      1.73 	    184.57 	    391.69 
	 189891.20 	    -11.38 	      0.94 	      1.73 	    184.88 	    391.83 
	 191656.11 	    -11.15 	      0.94 	      1.73 	    185.18 	    391.97 
	 193437.42 	    -10.92 	      0.95 	      1.73 	    185.49 	    392.11 
	 195235.29 	    -10.69 	      0.95 	      1.73 	    185.79 	    392.25 
	 197049.87 	    -10.45 	      0.95 	      1.73 	    186.10 	    392.39 
	 198881.31 	    -10.22 	      0.95 	      1.73 	    186.41 	    392.53 
	 200729.78 	     -9.98 	      0.95 	      1.73 	    186.72 	    392.67 
	 202595.42 	     -9.75 	      0.95 	      1.73 	    187.03 	    392.82 
	 204478.41 	     -9.51 	      0.95 	      1.73 	    187.34 	    392.96 
	 206378.90 	     -9.28 	      0.95 	      1.73 	    187.65 	    393.10 
	 208297.05 	     -9.04 	      0.96 	      1.73 	    187.96 	    393.24 
	 210233.02 	     -8.81 	      0.96 	      1.73 	    188.27 	    393.38 
	 212187.00 	     -8.57 	      0.96 	      1.73 	    188.58 	    393.53 
	 214159.13 	     -8.33 	      0.96 	      1.73 	    188.90 	    393.67 
	 216149.59 	     -8.09 	      0.96 	      1.73 	    189.21 	    393.81 
	 218158.55 	     -7.85 	      0.96 	      1.73 	    189.53 	    393.96 
	 220186.19 	     -7.62 	      0.96 	      1.73 	    189.85 	    394.10 
	 222232.67 	     -7.38 	      0.96 	      1.73 	    190.16 	    394.24 
	 224298.17 	     -7.14 	      0.96 	      1.73 	    190.48 	    394.39 
	 226382.87 	     -6.90 	      0.97 	      1.73 	    190.80 	    394.53 
	 228486.94 	     -6.65 	      0.97 	      1.73 	    191.12 	    394.67 
	 230610.57 	     -6.41 	      0.97 	      1.73 	    191.44 	    394.82 
	 232753.94 	     -6.17 	      0.97 	      1.73 	    191.76 	    394.96 
	 234917.23 	     -5.93 	      0.97 	      1.73 	    192.08 	    395.11 
	 237100.62 	     -5.69 	      0.97 	      1.73 	    192.41 	    395.25 
	 239304.31 	     -5.44 	      0.97 	      1.73 	    192.73 	    395.40 
	 241528.48 	     -5.20 	      0.97 	      1.73 	    193.05 	    395.54 
	 243773.32 	     -4.95 	      0.98 	      1.73 	    193.38 	    395.69 
	 246039.03 	     -4.71 	      0.98 	      1.73 	    193.70 	    395.83 
	 248325.79 	     -4.46 	      0.98 	      1.73 	    194.03 	    395.98 
	 250633.81 	     -4.22 	      0.98 	      1.73 	    194.36 	    396.12 
	 252963.28 	     -3.97 	      0.98 	      1.73 	    194.69 	    396.27 
	 255314.40 	     -3.72 	      0.98 	      1.73 	    195.02 	    396.42 
	 257687.37 	     -3.47 	      0.98 	      1.73 	    195.35 	    396.56 
	 260082.40 	     -3.23 	      0.98 	      1.73 	    195.68 	    396.71 
	 262499.68 	     -2.98 	      0.99 	      1.73 	    196.01 	    396.86 
	 264939.44 	     -2.73 	      0.99 	      1.73 	    196.34 	    397.00 
	 267401.87 	     -2.48 	      0.99 	      1.73 	    196.68 	    397.15 
	 269887.19 	     -2.23 	      0.99 	      1.73 	    197.01 	    397.30 
	 272395.60 	     -1.98 	      0.99 	      1.73 	    197.35 	    397.45 
	 274927.33 	     -1.73 	      0.99 	      1.73 	    197.69 	    397.59 
	 277482.60 	     -1.47 	      0.99 	      1.73 	    198.02 	    397.74 
	 280061.61 	     -1.22 	      0.99 	      1.73 	    198.36 	    397.89 
	 282664.59 	     -0.97 	      1.00 	      1.73 	    198.70 	    398.04 
	 285291.76 	     -0.72 	      1.00 	      1.73 	    199.04 	    398.19 
	 287943.35 	     -0.46 	      1.00 	      1.73 	    199.38 	    398.33 
	 290619.59 	     -0.21 	      1.00 	      1.73 	    199.72 	    398.48 
	 293320.70 	      0.05 	      1.00 	      1.73 	    200.07 	    398.63 
	 296046.91 	      0.30 	      1.00 	      1.73 	    200.41 	    398.78 
	 298798.47 	      0.56 	      1.00 	      1.73 	    200.75 	    398.93 
	 301575.59 	      0.82 	      1.00 	      1.73 	    201.10 	    399.08 
	 304378.53 	      1.07 	      1.01 	      1.73 	    201.45 	    399.23 
	 307207.52 	      1.33 	      1.01 	      1.73 	    201.79 	    399.38 
	 310062.81 	      1.59 	      1.01 	      1.73 	    202.14 	    399.53 
	 312944.63 	      1.85 	      1.01 	      1.73 	    202.49 	    399.68 
	 315853.23 	      2.11 	      1.01 	      1.73 	    202.84 	    399.83 
	 318788.87 	      2.37 	      1.01 	      1.73 	    203.19 	    399.98 
	 321751.80 	      2.63 	      1.01 	      1.73 	    203.54 	    400.13 
	 324742.26 	      2.89 	      1.01 	      1.73 	    203.90 	    400.28 
	 327760.52 	      3.15 	      1.02 	      1.73 	    204.25 	    400.43 
	 330806.83 	      3.42 	      1.02 	      1.73 	    204.61 	    400.58 
	 333881.45 	      3.68 	      1.02 	      1.73 	    204.96 	    400.73 
	 336984.65 	      3.94 	      1.02 	      1.72 	    205.32 	    400.89 
	 340116.69 	      4.21 	      1.02 	      1.72 	    205.68 	    401.04 
	 343277.84 	      4.47 	      1.02 	      1.72 	    206.03 	    401.19 
	 346468.37 	      4.74 	      1.02 	      1.72 	    206.39 	    401.34 
	 349688.56 	      5.00 	      1.02 	      1.72 	    206.76 	    401.49 
	 352938.67 	      5.27 	      1.03 	      1.72 	    207.12 	    401.65 
	 356219.00 	      5.54 	      1.03 	      1.72 	    207.48 	    401.80 
	 359529.81 	      5.80 	      1.03 	      1.72 	    207.84 	    401.95 
	 362871.39 	      6.07 	      1.03 	      1.72 	    208.21 	    402.10 
	 366244.03 	      6.34 	      1.03 	      1.72 	    208.57 	    402.26 
	 369648.02 	      6.61 	      1.03 	      1.72 	    208.94 	    402.41 
	 373083.65 	      6.88 	      1.03 	      1.72 	    209.31 	    402.56 
	 376551.20 	      7.15 	      1.03 	      1.72 	    209.68 	    402.72 
	 380050.99 	      7.42 	      1.04 	      1.72 	    210.05 	    402.87 
	 383583.30 	      7.69 	      1.04 	      1.72 	    210.42 	    403.02 
	 387148.45 	      7.96 	      1.04 	      1.72 	    210.79 	    403.18 
	 390746.73 	      8.24 	      1.04 	      1.72 	    211.16 	    403.33 
	 394378.45 	      8.51 	      1.04 	      1.72 	    211.54 	    403.48 
	 398043.93 	      8.79 	      1.04 	      1.72 	    211.91 	    403.64 
	 401743.47 	      9.06 	      1.04 	      1.72 	    212.29 	    403.79 
	 405477.40 	      9.34 	      1.05 	      1.72 	    212.67 	    403.95 
	 409246.04 	      9.61 	      1.05 	      1.72 	    213.04 	    404.10 
	 413049.70 	      9.89 	      1.05 	      1.72 	    213.42 	    404.26 
	 416888.71 	     10.16 	      1.05 	      1.72 	    213.80 	    404.41 
	 420763.41 	     10.44 	      1.05 	      1.72 	    214.18 	    404.56 
	 424674.11 	     10.72 	      1.05 	      1.72 	    214.57 	    404.72 
	 428621.17 	     11.00 	      1.05 	      1.72 	    214.95 	    404.87 
	 432604.91 	     11.28 	      1.05 	      1.72 	    215.34 	    405.03 
	 436625.68 	     11.56 	      1.06 	      1.72 	    215.72 	    405.19 
	 440683.81 	     11.84 	      1.06 	      1.72 	    216.11 	    405.34 
	 444779.67 	     12.12 	      1.06 	      1.72 	    216.50 	    405.50 
	 448913.59 	     12.40 	      1.06 	      1.72 	    216.88 	    405.65 
	 453085.93 	     12.69 	      1.06 	      1.72 	    217.28 	    405.81 
	 457297.06 	     12.97 	      1.06 	      1.72 	    217.67 	    405.96 
	 461547.32 	     13.25 	      1.06 	      1.72 	    218.06 	    406.12 
	 465837.09 	     13.54 	      1.07 	      1.72 	    218.45 	    406.27 
	 470166.72 	     13.82 	      1.07 	      1.72 	    218.85 	    406.43 
	 474536.60 	     14.11 	      1.07 	      1.72 	    219.24 	    406.59 
	 478947.09 	     14.39 	      1.07 	      1.72 	    219.64 	    406.74 
	 483398.58 	     14.68 	      1.07 	      1.72 	    220.04 	    406.90 
	 487891.44 	     14.97 	      1.07 	      1.72 	    220.44 	    407.06 
	 492426.05 	     15.26 	      1.07 	      1.72 	    220.84 	    407.21 
	 497002.82 	     15.55 	      1.08 	      1.72 	    221.24 	    407.37 
	 501622.12 	     15.84 	      1.08 	      1.72 	    221.64 	    407.53 
	 506284.35 	     16.13 	      1.08 	      1.72 	    222.05 	    407.68 
	 510989.92 	     16.42 	      1.08 	      1.72 	    222.45 	    407.84 
	 515739.22 	     16.71 	      1.08 	      1.72 	    222.86 	    408.00 
	 520532.66 	     17.00 	      1.08 	      1.72 	    223.27 	    408.15 
	 525370.65 	     17.29 	      1.08 	      1.72 	    223.68 	    408.31 
	 530253.62 	     17.59 	      1.08 	      1.72 	    224.09 	    408.47 
	 535181.96 	     17.88 	      1.09 	      1.72 	    224.50 	    408.63 
	 540156.11 	     18.18 	      1.09 	      1.72 	    224.91 	    408.78 
	 545176.49 	     18.47 	      1.09 	      1.72 	    225.32 	    408.94 
	 550243.53 	     18.77 	      1.09 	      1.72 	    225.74 	    409.10 
	 555357.67 	     19.06 	      1.09 	      1.72 	    226.15 	    409.25 
	 560519.34 	     19.36 	      1.09 	      1.72 	    226.57 	    409.41 
	 565728.98 	     19.66 	      1.09 	      1.72 	    226.99 	    409.57 
	 570987.04 	     19.96 	      1.10 	      1.72 	    227.41 	    409.73 
	 576293.98 	     20.26 	      1.10 	      1.72 	    227.83 	    409.88 
	 581650.24 	     20.56 	      1.10 	      1.72 	    228.25 	    410.04 
	 587056.28 	     20.86 	      1.10 	      1.72 	    228.68 	    410.20 
	 592512.56 	     21.16 	      1.10 	      1.72 	    229.10 	    410.36 
	 598019.56 	     21.46 	      1.10 	      1.72 	    229.53 	    410.51 
	 603577.74 	     21.77 	      1.10 	      1.72 	    229.96 	    410.67 
	 609187.58 	     22.07 	      1.11 	      1.72 	    230.39 	    410.83 
	 614849.56 	     22.37 	      1.11 	      1.72 	    230.82 	    410.99 
	 620564.17 	     22.68 	      1.11 	      1.72 	    231.25 	    411.15 
	 626331.89 	     22.98 	      1.11 	      1.72 	    231.68 	    411.30 
	 632153.22 	     23.29 	      1.11 	      1.72 	    232.12 	    411.46 
	 638028.65 	     23.60 	      1.11 	      1.72 	    232.55 	    411.62 
	 643958.69 	     23.91 	      1.11 	      1.72 	    232.99 	    411.78 
	 649943.84 	     24.21 	      1.12 	      1.72 	    233.43 	    411.93 
	 655984.62 	     24.52 	      1.12 	      1.72 	    233.87 	    412.09 
	 662081.55 	     24.83 	      1.12 	      1.72 	    234.31 	    412.25 
	 668235.14 	     25.14 	      1.12 	      1.72 	    234.75 	    412.41 
	 674445.93 	     25.45 	      1.12 	      1.72 	    235.19 	    412.56 
	 680714.45 	     25.77 	      1.12 	      1.72 	    235.64 	    412.72 
	 687041.22 	     26.08 	      1.13 	      1.72 	    236.09 	    412.88 
	 693426.80 	     26.39 	      1.13 	      1.72 	    236.53 	    413.04 
	 699871.72 	     26.71 	      1.13 	      1.72 	    236.98 	    413.19 
	 706376.55 	     27.02 	      1.13 	      1.72 	    237.44 	    413.35 
	 712941.84 	     27.34 	      1.13 	      1.72 	    237.89 	    413.51 
	 719568.14 	     27.65 	      1.13 	      1.72 	    238.34 	    413.67 
	 726256.04 	     27.97 	      1.13 	      1.72 	    238.80 	    413.82 
	 733006.09 	     28.29 	      1.14 	      1.72 	    239.25 	    413.98 
	 739818.88 	     28.61 	      1.14 	      1.71 	    239.71 	    414.14 
	 746694.99 	     28.93 	      1.14 	      1.71 	    240.17 	    414.29 
	 753635.01 	     29.25 	      1.14 	      1.71 	    240.63 	    414.45 
	 760639.53 	     29.57 	      1.14 	      1.71 	    241.10 	    414.61 
	 767709.15 	     29.89 	      1.14 	      1.71 	    241.56 	    414.76 
	 774844.48 	     30.21 	      1.14 	      1.71 	    242.03 	    414.92 
	 782046.13 	     30.53 	      1.15 	      1.71 	    242.49 	    415.08 
	 789314.71 	     30.86 	      1.15 	      1.71 	    242.96 	    415.23 
	 796650.85 	     31.18 	      1.15 	      1.71 	    243.43 	    415.39 
	 804055.18 	     31.51 	      1.15 	      1.71 	    243.90 	    415.54 
	 811528.32 	     31.83 	      1.15 	      1.71 	    244.38 	    415.70 
	 819070.92 	     32.16 	      1.15 	      1.71 	    244.85 	    415.86 
	 826683.62 	     32.48 	      1.16 	      1.71 	    245.33 	    416.01 
	 834367.08 	     32.81 	      1.16 	      1.71 	    245.81 	    416.17 
	 842121.95 	     33.14 	      1.16 	      1.71 	    246.29 	    416.32 
	 849948.90 	     33.47 	      1.16 	      1.71 	    246.77 	    416.48 
	 857848.59 	     33.80 	      1.16 	      1.71 	    247.25 	    416.63 
	 865821.71 	     34.13 	      1.16 	      1.71 	    247.73 	    416.79 
	 873868.92 	     34.46 	      1.16 	      1.71 	    248.22 	    416.94 
	 881990.94 	     34.80 	      1.17 	      1.71 	    248.71 	    417.09 
	 890188.44 	     35.13 	      1.17 	      1.71 	    249.20 	    417.25 
	 898462.13 	     35.46 	      1.17 	      1.71 	    249.69 	    417.40 
	 906812.72 	     35.80 	      1.17 	      1.71 	    250.18 	    417.56 
	 915240.92 	     36.13 	      1.17 	      1.71 	    250.68 	    417.71 
	 923747.46 	     36.47 	      1.17 	      1.71 	    251.17 	    417.86 
	 932333.06 	     36.81 	      1.18 	      1.71 	    251.67 	    418.01 
	 940998.46 	     37.15 	      1.18 	      1.71 	    252.17 	    418.17 
	 949744.39 	     37.49 	      1.18 	      1.71 	    252.67 	    418.32 
	 958571.62 	     37.82 	      1.18 	      1.71 	    253.17 	    418.47 
	 967480.88 	     38.17 	      1.18 	      1.71 	    253.68 	    418.62 
	 976472.96 	     38.51 	      1.18 	      1.71 	    254.18 	    418.77 
	 985548.60 	     38.85 	      1.19 	      1.71 	    254.69 	    418.92 
	 994708.60 	     39.19 	      1.19 	      1.71 	    255.20 	    419.08 
	1003953.74 	     39.53 	      1.19 	      1.71 	    255.71 	    419.23 
	1013284.80 	     39.88 	      1.19 	      1.71 	    256.23 	    419.38 
	1022702.59 	     40.22 	      1.19 	      1.71 	    256.74 	    419.53 
	1032207.91 	     40.57 	      1.19 	      1.71 	    257.26 	    419.67 
	1041801.57 	     40.92 	      1.19 	      1.71 	    257.78 	    419.82 
	1051484.41 	     41.26 	      1.20 	      1.71 	    258.30 	    419.97 
	1061257.23 	     41.61 	      1.20 	      1.71 	    258.82 	    420.12 
	1071120.89 	     41.96 	      1.20 	      1.71 	    259.35 	    420.27 
	1081076.23 	     42.31 	      1.20 	      1.71 	    259.87 	    420.41 
	1091124.09 	     42.66 	      1.20 	      1.71 	    260.40 	    420.56 
	1101265.34 	     43.01 	      1.20 	      1.71 	    260.93 	    420.71 
	1111500.85 	     43.37 	      1.21 	      1.71 	    261.46 	    420.85 
	1121831.49 	     43.72 	      1.21 	      1.71 	    262.00 	    421.00 
	1132258.14 	     44.07 	      1.21 	      1.71 	    262.53 	    421.14 
	1142781.70 	     44.43 	      1.21 	      1.71 	    263.07 	    421.29 
	1153403.08 	     44.78 	      1.21 	      1.71 	    263.61 	    421.43 
	1164123.17 	     45.14 	      1.21 	      1.71 	    264.15 	    421.57 
	1174942.90 	     45.50 	      1.22 	      1.71 	    264.70 	    421.72 
	1185863.19 	     45.85 	      1.22 	      1.71 	    265.24 	    421.86 
	1196884.97 	     46.21 	      1.22 	      1.71 	    265.79 	    422.00 
	1208009.20 	     46.57 	      1.22 	      1.71 	    266.34 	    422.14 
	1219236.82 	     46.93 	      1.22 	      1.71 	    266.90 	    422.28 
	1230568.79 	     47.30 	      1.22 	      1.71 	    267.45 	    422.42 
	1242006.08 	     47.66 	      1.23 	      1.71 	    268.01 	    422.56 
	1253549.68 	     48.02 	      1.23 	      1.71 	    268.56 	    422.70 
	1265200.56 	     48.38 	      1.23 	      1.71 	    269.12 	    422.84 
	1276959.73 	     48.75 	      1.23 	      1.71 	    269.69 	    422.97 
	1288828.20 	     49.11 	      1.23 	      1.71 	    270.25 	    423.11 
	1300806.97 	     49.48 	      1.24 	      1.71 	    270.82 	    423.25 
	1312897.08 	     49.85 	      1.24 	      1.71 	    271.39 	    423.38 
	1325099.56 	     50.22 	      1.24 	      1.71 	    271.96 	    423.52 
	1337415.46 	     50.59 	      1.24 	      1.71 	    272.53 	    423.65 
	1349845.82 	     50.96 	      1.24 	      1.71 	    273.11 	    423.78 
	1362391.71 	     51.33 	      1.24 	      1.71 	    273.69 	    423.91 
	1375054.21 	     51.70 	      1.25 	      1.71 	    274.27 	    424.04 
	1387834.39 	     52.07 	      1.25 	      1.71 	    274.85 	    424.17 
	1400733.36 	     52.44 	      1.25 	      1.71 	    275.44 	    424.30 
	1413752.22 	     52.82 	      1.25 	      1.71 	    276.02 	    424.43 
	1426892.08 	     53.19 	      1.25 	      1.71 	    276.61 	    424.56 
	1440154.06 	     53.57 	      1.25 	      1.71 	    277.20 	    424.68 
	1453539.31 	     53.95 	      1.26 	      1.71 	    277.80 	    424.81 
	1467048.96 	     54.32 	      1.26 	      1.71 	    278.40 	    424.93 
	1480684.17 	     54.70 	      1.26 	      1.71 	    279.00 	    425.06 
	1494446.12 	     55.08 	      1.26 	      1.70 	    279.60 	    425.18 
	1508335.97 	     55.46 	      1.26 	      1.70 	    280.20 	    425.30 
	1522354.92 	     55.84 	      1.27 	      1.70 	    280.81 	    425.42 
	1536504.17 	     56.22 	      1.27 	      1.70 	    281.42 	    425.54 
	1550784.92 	     56.61 	      1.27 	      1.70 	    282.03 	    425.66 
	1565198.41 	     56.99 	      1.27 	      1.70 	    282.64 	    425.77 
	1579745.85 	     57.37 	      1.27 	      1.70 	    283.26 	    425.89 
	1594428.51 	     57.76 	      1.27 	      1.70 	    283.88 	    426.00 
	1609247.63 	     58.15 	      1.28 	      1.70 	    284.50 	    426.11 
	1624204.48 	     58.53 	      1.28 	      1.70 	    285.13 	    426.22 
	1639300.35 	     58.92 	      1.28 	      1.70 	    285.75 	    426.33 
	1654536.52 	     59.31 	      1.28 	      1.70 	    286.39 	    426.44 
	1669914.31 	     59.70 	      1.28 	      1.70 	    287.02 	    426.55 
	1685435.02 	     60.09 	      1.29 	      1.70 	    287.65 	    426.65 
	1701099.98 	     60.48 	      1.29 	      1.70 	    288.29 	    426.76 
	1716910.54 	     60.88 	      1.29 	      1.70 	    288.93 	    426.86 
	1732868.05 	     61.27 	      1.29 	      1.70 	    289.58 	    426.96 
	1748973.87 	     61.66 	      1.29 	      1.70 	    290.23 	    427.06 
	1765229.38 	     62.06 	      1.29 	      1.70 	    290.88 	    427.16 
	1781635.98 	     62.45 	      1.30 	      1.70 	    291.53 	    427.25 
	1798195.07 	     62.85 	      1.30 	      1.70 	    292.18 	    427.35 
	1814908.06 	     63.25 	      1.30 	      1.70 	    292.84 	    427.44 
	1831776.38 	     63.65 	      1.30 	      1.70 	    293.51 	    427.53 
	1848801.49 	     64.05 	      1.30 	      1.70 	    294.17 	    427.62 
	1865984.83 	     64.45 	      1.31 	      1.70 	    294.84 	    427.70 
	1883327.88 	     64.85 	      1.31 	      1.70 	    295.51 	    427.79 
	1900832.13 	     65.25 	      1.31 	      1.70 	    296.19 	    427.87 
	1918499.06 	     65.66 	      1.31 	      1.70 	    296.86 	    427.95 
	1936330.19 	     66.06 	      1.31 	      1.70 	    297.54 	    428.03 
	1954327.06 	     66.47 	      1.32 	      1.70 	    298.23 	    428.10 
	1972491.19 	     66.87 	      1.32 	      1.70 	    298.92 	    428.18 
	1990824.14 	     67.28 	      1.32 	      1.70 	    299.61 	    428.25 
	2009327.49 	     67.69 	      1.32 	      1.70 	    300.30 	    428.31 
	2028002.81 	     68.09 	      1.32 	      1.70 	    301.00 	    428.38 
	2046851.71 	     68.50 	      1.33 	      1.70 	    301.70 	    428.44 
	2065875.79 	     68.91 	      1.33 	      1.70 	    302.41 	    428.50 
	2085076.69 	     69.33 	      1.33 	      1.70 	    303.12 	    428.56 
	2104456.05 	     69.74 	      1.33 	      1.70 	    303.83 	    428.62 
	2124015.53 	     70.15 	      1.33 	      1.70 	    304.55 	    428.67 
	2143756.80 	     70.57 	      1.34 	      1.70 	    305.27 	    428.72 
	2163681.55 	     70.98 	      1.34 	      1.69 	    305.99 	    428.76 
	2183791.49 	     71.40 	      1.34 	      1.69 	    306.72 	    428.81 
	2204088.33 	     71.81 	      1.34 	      1.69 	    307.45 	    428.85 
	2224573.82 	     72.23 	      1.34 	      1.69 	    308.18 	    428.88 
	2245249.71 	     72.65 	      1.35 	      1.69 	    308.92 	    428.92 
	2266117.77 	     73.07 	      1.35 	      1.69 	    309.67 	    428.94 
	2287179.78 	     73.49 	      1.35 	      1.69 	    310.42 	    428.97 
	2308437.55 	     73.91 	      1.35 	      1.69 	    311.17 	    428.99 
	2329892.90 	     74.33 	      1.35 	      1.69 	    311.93 	    429.01 
	2351547.66 	     74.76 	      1.36 	      1.69 	    312.69 	    429.02 
	2373403.68 	     75.18 	      1.36 	      1.69 	    313.45 	    429.03 
	2395462.84 	     75.60 	      1.36 	      1.69 	    314.22 	    429.04 
	2417727.03 	     76.03 	      1.36 	      1.69 	    315.00 	    429.04 
	2440198.14 	     76.46 	      1.37 	      1.69 	    315.78 	    429.04 
	2462878.11 	     76.88 	      1.37 	      1.69 	    316.56 	    429.03 
	2485768.88 	     77.31 	      1.37 	      1.69 	    317.35 	    429.02 
	2508872.40 	     77.74 	      1.37 	      1.69 	    318.15 	    429.00 
	2532190.65 	     78.17 	      1.37 	      1.69 	    318.95 	    428.97 
	2555725.63 	     78.60 	      1.38 	      1.69 	    319.75 	    428.95 
	2579479.34 	     79.03 	      1.38 	      1.69 	    320.56 	    428.91 
	2603453.84 	     79.47 	      1.38 	      1.69 	    321.38 	    428.87 
	2627651.16 	     79.90 	      1.38 	      1.69 	    322.20 	    428.82 
	2652073.38 	     80.34 	      1.39 	      1.68 	    323.03 	    428.77 
	2676722.58 	     80.77 	      1.39 	      1.68 	    323.86 	    428.71 
	2701600.88 	     81.21 	      1.39 	      1.68 	    324.70 	    428.65 
	2726710.41 	     81.64 	      1.39 	      1.68 	    325.55 	    428.58 
	2752053.32 	     82.08 	      1.39 	      1.68 	    326.40 	    428.50 
	2777631.77 	     82.52 	      1.40 	      1.68 	    327.26 	    428.41 
	2803447.95 	     82.96 	      1.40 	      1.68 	    328.13 	    428.31 
	2829504.08 	     83.40 	      1.40 	      1.68 	    329.00 	    428.21 
	2855802.38 	     83.84 	      1.40 	      1.68 	    329.88 	    428.10 
	2882345.11 	     84.28 	      1.41 	      1.68 	    330.77 	    427.98 
	2909134.53 	     84.73 	      1.41 	      1.68 	    331.67 	    427.85 
	2936172.94 	     85.17 	      1.41 	      1.68 	    332.57 	    427.71 
	2963462.66 	     85.61 	      1.41 	      1.68 	    333.48 	    427.55 
	2991006.02 	     86.06 	      1.42 	      1.68 	    334.40 	    427.39 
	3018805.37 	     86.50 	      1.42 	      1.67 	    335.33 	    427.22 
	3046863.10 	     86.95 	      1.42 	      1.67 	    336.27 	    427.04 
	3075181.60 	     87.40 	      1.42 	      1.67 	    337.22 	    426.84 
	3103763.31 	     87.85 	      1.43 	      1.67 	    338.18 	    426.63 
	3132610.66 	     88.30 	      1.43 	      1.67 	    339.15 	    426.41 
	3161726.13 	     88.75 	      1.43 	      1.67 	    340.13 	    426.17 
	3191112.21 	     89.20 	      1.43 	      1.67 	    341.13 	    425.91 
	3220771.41 	     89.65 	      1.44 	      1.67 	    342.13 	    425.64 
	3250706.27 	     90.10 	      1.44 	      1.67 	    343.15 	    425.35 
	3280919.36 	     90.55 	      1.44 	      1.66 	    344.18 	    425.04 
	3311413.26 	     91.00 	      1.45 	      1.66 	    345.23 	    424.72 
	3342190.58 	     91.46 	      1.45 	      1.66 	    346.29 	    424.37 
	3373253.95 	     91.91 	      1.45 	      1.66 	    347.37 	    423.99 
	3404606.03 	     92.37 	      1.45 	      1.66 	    348.47 	    423.59 
	3436249.51 	     92.82 	      1.46 	      1.66 	    349.59 	    423.17 
	3468187.10 	     93.28 	      1.46 	      1.66 	    350.73 	    422.71 
	3500421.52 	     93.73 	      1.46 	      1.65 	    351.89 	    422.22 
	3532955.54 	     94.19 	      1.47 	      1.65 	    353.08 	    421.70 
	3565791.94 	     94.65 	      1.47 	      1.65 	    354.29 	    421.13 
	3598933.54 	     95.11 	      1.47 	      1.65 	    355.54 	    420.52 
	3632383.16 	     95.56 	      1.48 	      1.65 	    356.82 	    419.86 
	3666143.67 	     96.02 	      1.48 	      1.64 	    358.14 	    419.15 
	3700217.97 	     96.48 	      1.48 	      1.64 	    359.51 	    418.36 
	3734608.96 	     96.94 	      1.49 	      1.64 	    360.93 	    417.50 
	3769319.59 	     97.40 	      1.49 	      1.64 	    362.41 	    416.55 
	3804352.83 	     97.86 	      1.49 	      1.63 	    363.97 	    415.49 
	3839711.68 	     98.32 	      1.50 	      1.63 	    365.63 	    414.29 
	3875399.17 	     98.78 	      1.50 	      1.63 	    367.41 	    412.91 
	3911418.35 	     99.24 	      1.51 	      1.62 	    369.37 	    411.29 
	3947772.31 	     99.69 	      1.51 	      1.62 	    371.59 	    409.32 
	3984464.15 	    100.15 	      1.52 	      1.61 	    374.23 	    406.75 
	4021497.01 	    100.61 	      1.53 	      1.60 	    377.82 	    402.96 
